File: monitor_Icharger/1charging_1000_4.csv
date;system_time;battery_state;voltage[V];current[mA];capacity[mAh]
2025-09-23;17:24:49;charging;4.197;21;0
2025-09-23;17:25:15;charging;4.196;17;1
2025-09-23;17:25:40;charging;4.197;17;3
2025-09-23;17:26:07;charging;4.197;17;4
2025-09-23;17:26:33;charging;4.201;18;5
2025-09-23;17:26:59;charging;4.197;20;7
2025-09-23;17:27:25;charging;4.197;16;8
2025-09-23;17:27:51;charging;4.196;17;9
2025-09-23;17:28:16;charging;4.197;15;10
2025-09-23;17:28:43;charging;4.197;15;12
2025-09-23;17:29:09;charging;4.201;14;13
2025-09-23;17:29:35;charging;4.19;12;14
2025-09-23;17:30:01;charging;4.197;12;15
2025-09-23;17:30:27;charging;4.197;7;15
2025-09-23;17:30:53;charging;4.196;8;16
2025-09-23;17:31:18;charging;4.197;7;17
2025-09-23;17:31:45;charging;4.196;7;17
2025-09-23;17:32:11;charging;4.197;7;18
2025-09-23;17:32:37;charging;4.196;7;18
2025-09-23;17:33:02;charging;4.197;6;19
2025-09-23;17:33:29;charging;4.197;6;19
2025-09-23;17:33:55;charging;4.196;8;20
2025-09-23;17:34:21;charging;4.201;8;21
2025-09-23;17:34:46;charging;4.196;8;21
2025-09-23;17:35:12;charging;4.197;8;22
2025-09-23;17:35:39;charging;4.198;8;22
2025-09-23;17:36:04;charging;4.197;8;23
2025-09-23;17:36:31;charging;4.197;9;24
2025-09-23;17:36:56;charging;4.2;8;24
2025-09-23;17:37:23;charging;4.193;9;25
2025-09-23;17:37:49;charging;4.19;7;26
2025-09-23;17:38:14;charging;4.2;7;26
2025-09-23;17:38:40;charging;4.195;7;27
2025-09-23;17:39:06;charging;4.197;8;27
2025-09-23;17:39:33;charging;4.197;7;28
2025-09-23;17:39:58;charging;4.204;7;29
2025-09-23;17:40:24;charging;4.196;7;29
2025-09-23;17:40:50;charging;4.196;7;30
2025-09-23;17:41:16;charging;4.198;7;30
2025-09-23;17:41:42;charging;4.202;7;31
2025-09-23;17:42:08;charging;4.2;7;31
2025-09-23;17:42:34;charging;4.197;7;32
2025-09-23;17:43:00;charging;4.2;7;32
2025-09-23;17:43:26;charging;4.196;7;33
2025-09-23;17:43:52;charging;4.197;6;33
2025-09-23;17:44:18;charging;4.197;7;34
2025-09-23;17:44:44;charging;4.196;7;35
2025-09-23;17:45:10;charging;4.197;7;35
2025-09-23;17:45:36;charging;4.198;7;36
2025-09-23;17:46:02;charging;4.196;6;36
2025-09-23;17:46:28;charging;4.197;6;37
2025-09-23;17:46:54;charging;4.196;6;37
2025-09-23;17:47:20;charging;4.197;6;38
2025-09-23;17:47:46;charging;4.197;6;38
2025-09-23;17:48:12;charging;4.196;6;39
2025-09-23;17:48:38;charging;4.196;6;39
2025-09-23;17:49:04;charging;4.197;6;40
2025-09-23;17:49:30;charging;4.197;6;40
2025-09-23;17:49:56;charging;4.197;6;41
2025-09-23;17:50:22;charging;4.197;6;41
2025-09-23;17:50:48;charging;4.196;6;42
2025-09-23;17:51:14;charging;4.196;6;42
2025-09-23;17:51:40;charging;4.196;6;43
2025-09-23;17:52:06;charging;4.196;6;43
2025-09-23;17:52:32;charging;4.196;6;44
2025-09-23;17:52:58;charging;4.197;6;44
2025-09-23;17:53:24;charging;4.197;6;45
2025-09-23;17:53:50;charging;4.197;6;45
2025-09-23;17:54:16;charging;4.196;6;46
2025-09-23;17:54:42;charging;4.197;6;46
2025-09-23;17:55:08;charging;4.197;6;47
2025-09-23;17:55:34;charging;4.196;6;47
2025-09-23;17:56:00;charging;4.197;6;48
2025-09-23;17:56:26;charging;4.197;6;48
2025-09-23;17:56:52;charging;4.197;6;49
2025-09-23;17:57:18;charging;4.196;6;49
2025-09-23;17:57:44;charging;4.197;6;50
2025-09-23;17:58:10;charging;4.202;6;50
2025-09-23;17:58:36;charging;4.198;6;51
2025-09-23;17:59:02;charging;4.197;6;51
2025-09-23;17:59:28;charging;4.193;6;52
2025-09-23;17:59:54;charging;4.195;6;52
2025-09-23;18:00:20;charging;4.196;6;53
2025-09-23;18:00:46;charging;4.197;6;53
2025-09-23;18:01:12;charging;4.196;6;54
2025-09-23;18:01:38;charging;4.196;6;54
2025-09-23;18:02:04;charging;4.197;6;55
2025-09-23;18:02:30;charging;4.197;6;55
2025-09-23;18:02:56;charging;4.196;6;56
2025-09-23;18:03:22;charging;4.197;6;56
2025-09-23;18:03:48;charging;4.197;6;57
2025-09-23;18:04:14;charging;4.196;6;57
2025-09-23;18:04:40;charging;4.197;6;58
2025-09-23;18:05:06;charging;4.196;6;58
2025-09-23;18:05:32;charging;4.196;6;59
2025-09-23;18:05:58;charging;4.197;6;59
2025-09-23;18:06:24;charging;4.197;6;59
2025-09-23;18:06:50;charging;4.197;6;60
2025-09-23;18:07:16;charging;4.196;6;60
2025-09-23;18:07:42;charging;4.197;6;61
2025-09-23;18:08:08;charging;4.197;6;61
2025-09-23;18:08:34;charging;4.197;6;62
2025-09-23;18:09:00;charging;4.197;6;62
2025-09-23;18:09:26;charging;4.197;6;63
2025-09-23;18:09:52;charging;4.197;6;63
2025-09-23;18:10:18;charging;4.197;6;64
2025-09-23;18:10:44;charging;4.197;6;64
2025-09-23;18:11:10;charging;4.197;6;65
2025-09-23;18:11:36;charging;4.196;6;65
2025-09-23;18:12:02;charging;4.197;6;66
2025-09-23;18:12:28;charging;4.197;6;66
2025-09-23;18:12:54;charging;4.197;6;67
2025-09-23;18:13:20;charging;4.197;6;67
2025-09-23;18:13:46;charging;4.197;6;68
2025-09-23;18:14:12;charging;4.197;6;68
2025-09-23;18:14:38;charging;4.196;6;69
2025-09-23;18:15:04;charging;4.196;6;69
2025-09-23;18:15:30;charging;4.197;6;70
2025-09-23;18:15:56;charging;4.197;6;70
2025-09-23;18:16:22;charging;4.197;6;70
2025-09-23;18:16:48;charging;4.197;6;71
2025-09-23;18:17:14;charging;4.197;6;71
2025-09-23;18:17:40;charging;4.197;6;72
2025-09-23;18:18:06;charging;4.197;6;72
2025-09-23;18:18:32;charging;4.197;6;73
2025-09-23;18:18:58;charging;4.197;6;73
2025-09-23;18:19:24;charging;4.197;6;74
2025-09-23;18:19:50;charging;4.197;6;74
2025-09-23;18:20:16;charging;4.197;6;75
2025-09-23;18:20:42;charging;4.194;6;75
2025-09-23;18:21:08;charging;4.197;6;76
2025-09-23;18:21:34;charging;4.197;6;76
2025-09-23;18:22:00;charging;4.19;6;77
2025-09-23;18:22:26;charging;4.196;6;77
2025-09-23;18:22:52;charging;4.197;6;78
2025-09-23;18:23:18;charging;4.197;6;78
2025-09-23;18:23:44;charging;4.197;6;79
2025-09-23;18:24:10;charging;4.197;6;79
2025-09-23;18:24:36;charging;4.197;6;80
2025-09-23;18:25:02;charging;4.196;6;80
2025-09-23;18:25:28;charging;4.197;6;81
2025-09-23;18:25:54;charging;4.197;6;81
2025-09-23;18:26:20;charging;4.197;6;81
2025-09-23;18:26:46;charging;4.196;6;82
2025-09-23;18:27:12;charging;4.197;6;82
2025-09-23;18:27:38;charging;4.197;6;83
2025-09-23;18:28:04;charging;4.197;6;83
2025-09-23;18:28:30;charging;4.197;6;84
2025-09-23;18:28:56;charging;4.197;6;84
2025-09-23;18:29:22;charging;4.197;6;85
2025-09-23;18:29:48;charging;4.197;6;85
2025-09-23;18:30:14;charging;4.197;5;86
2025-09-23;18:30:40;charging;4.197;5;86
2025-09-23;18:31:06;charging;4.197;5;86
2025-09-23;18:31:32;charging;4.197;5;87
2025-09-23;18:31:58;charging;4.197;5;87
2025-09-23;18:32:24;charging;4.197;6;88
2025-09-23;18:32:50;charging;4.197;6;88
2025-09-23;18:33:16;charging;4.197;6;89
2025-09-23;18:33:42;charging;4.197;6;89
2025-09-23;18:34:08;charging;4.197;6;89
2025-09-23;18:34:34;charging;4.197;6;90
2025-09-23;18:35:00;charging;4.197;6;90
2025-09-23;18:35:26;charging;4.197;6;91
2025-09-23;18:35:52;charging;4.197;6;91
2025-09-23;18:36:18;charging;4.197;6;92
2025-09-23;18:36:44;charging;4.197;6;92
2025-09-23;18:37:10;charging;4.197;6;93
2025-09-23;18:37:36;charging;4.197;6;93
2025-09-23;18:38:02;charging;4.197;6;94
2025-09-23;18:38:28;charging;4.196;6;94
2025-09-23;18:38:54;charging;4.197;6;95
2025-09-23;18:39:20;charging;4.197;6;95
2025-09-23;18:39:46;charging;4.197;6;95
2025-09-23;18:40:12;charging;4.197;6;96
2025-09-23;18:40:38;charging;4.197;6;96
2025-09-23;18:41:04;charging;4.197;6;97
2025-09-23;18:41:30;charging;4.197;6;97
2025-09-23;18:41:56;charging;4.197;6;98
2025-09-23;18:42:22;charging;4.197;6;98
2025-09-23;18:42:48;charging;4.197;6;99
2025-09-23;18:43:14;charging;4.197;6;99
2025-09-23;18:43:40;charging;4.197;6;100
2025-09-23;18:44:06;charging;4.197;6;100
2025-09-23;18:44:32;charging;4.199;6;100
2025-09-23;18:44:58;charging;4.189;5;101
2025-09-23;18:45:24;charging;4.189;5;101
2025-09-23;18:45:50;charging;4.19;5;102
2025-09-23;18:46:16;charging;4.193;5;102
2025-09-23;18:46:42;charging;4.197;6;103
2025-09-23;18:47:08;charging;4.197;6;103
2025-09-23;18:47:34;charging;4.197;6;104
2025-09-23;18:48:00;charging;4.197;6;104
2025-09-23;18:48:26;charging;4.197;6;105
2025-09-23;18:48:52;charging;4.197;6;105
2025-09-23;18:49:18;charging;4.196;6;105
2025-09-23;18:49:44;charging;4.197;6;106
2025-09-23;18:50:10;charging;4.197;6;106
2025-09-23;18:50:36;charging;4.197;6;107
2025-09-23;18:51:02;charging;4.197;6;107
2025-09-23;18:51:28;charging;4.196;6;108
2025-09-23;18:51:54;charging;4.197;6;108
2025-09-23;18:52:20;charging;4.197;5;109
2025-09-23;18:52:46;charging;4.196;6;109
2025-09-23;18:53:12;charging;4.197;6;109
2025-09-23;18:53:38;charging;4.197;6;110
2025-09-23;18:54:04;charging;4.197;6;110
2025-09-23;18:54:30;charging;4.197;5;111
2025-09-23;18:54:56;charging;4.197;5;111
2025-09-23;18:55:22;charging;4.197;5;112
2025-09-23;18:55:48;charging;4.197;6;112
2025-09-23;18:56:14;charging;4.197;5;112
2025-09-23;18:56:40;charging;4.197;6;113
2025-09-23;18:57:06;charging;4.197;5;113
2025-09-23;18:57:32;charging;4.197;6;114
2025-09-23;18:57:58;charging;4.197;5;114
2025-09-23;18:58:24;charging;4.197;5;115
2025-09-23;18:58:50;charging;4.197;5;115
2025-09-23;18:59:16;charging;4.197;5;116
2025-09-23;18:59:42;charging;4.197;5;116
2025-09-23;19:00:08;charging;4.197;5;116
2025-09-23;19:00:34;charging;4.197;6;117
2025-09-23;19:01:00;charging;4.197;6;117
2025-09-23;19:01:26;charging;4.197;6;118
2025-09-23;19:01:52;charging;4.197;5;118
2025-09-23;19:02:18;charging;4.197;5;119
2025-09-23;19:02:44;charging;4.197;5;119
2025-09-23;19:03:10;charging;4.197;5;119
2025-09-23;19:03:36;charging;4.197;5;120
2025-09-23;19:04:02;charging;4.197;5;120
2025-09-23;19:04:28;charging;4.197;5;121
2025-09-23;19:04:54;charging;4.197;5;121
2025-09-23;19:05:20;charging;4.197;6;121
2025-09-23;19:05:46;charging;4.197;5;122
2025-09-23;19:06:12;charging;4.197;5;122
2025-09-23;19:06:38;charging;4.197;5;123
2025-09-23;19:07:04;charging;4.197;5;123
2025-09-23;19:07:30;charging;4.197;6;123
2025-09-23;19:07:56;charging;4.197;5;124
2025-09-23;19:08:22;charging;4.197;5;124
2025-09-23;19:08:48;charging;4.197;5;125
2025-09-23;19:09:14;charging;4.197;5;125
2025-09-23;19:09:40;charging;4.197;5;125
2025-09-23;19:10:06;charging;4.197;5;126
2025-09-23;19:10:32;charging;4.197;5;126
2025-09-23;19:10:58;charging;4.197;4;127
2025-09-23;19:11:24;charging;4.197;5;127
2025-09-23;19:11:50;charging;4.197;4;127
2025-09-23;19:12:06;rest;3.85;0;127