File: monitor_Icharger/1discharging_1_3.csv
date;time;battery_state;voltage[V];current[mA];capacity[mAh]
2025-09-23;16:23:43;discharging;3.285;50;0
2025-09-23;16:23:45;discharging;3.284;50;0
2025-09-23;16:23:47;discharging;3.3;49;1
2025-09-23;16:23:49;discharging;3.31;49;1
2025-09-23;16:23:51;discharging;3.32;49;1
2025-09-23;16:23:53;discharging;3.311;49;1
2025-09-23;16:23:55;discharging;3.311;49;2
2025-09-23;16:23:57;discharging;3.312;50;2
2025-09-23;16:23:59;discharging;3.317;49;2
2025-09-23;16:24:01;discharging;3.318;49;2
2025-09-23;16:24:03;discharging;3.318;50;3
2025-09-23;16:24:05;discharging;3.318;49;3
2025-09-23;16:24:07;discharging;3.318;50;3
2025-09-23;16:24:09;discharging;3.317;49;4
2025-09-23;16:24:11;discharging;3.339;49;4
2025-09-23;16:24:13;discharging;3.325;49;4
2025-09-23;16:24:15;discharging;3.327;50;4
2025-09-23;16:24:17;discharging;3.326;49;5
2025-09-23;16:24:19;discharging;3.325;50;5
2025-09-23;16:24:21;discharging;3.327;49;5
2025-09-23;16:24:23;discharging;3.325;49;6
2025-09-23;16:24:25;discharging;3.326;50;6
2025-09-23;16:24:27;discharging;3.326;49;6
2025-09-23;16:24:29;discharging;3.325;50;6
2025-09-23;16:24:31;discharging;3.327;49;7
2025-09-23;16:24:33;discharging;3.326;49;7
2025-09-23;16:24:35;discharging;3.326;49;7
2025-09-23;16:24:37;discharging;3.326;49;8
2025-09-23;16:24:39;discharging;3.326;50;8
2025-09-23;16:24:41;discharging;3.326;49;8
2025-09-23;16:24:43;discharging;3.326;50;8
2025-09-23;16:24:45;discharging;3.325;49;9
2025-09-23;16:24:47;discharging;3.325;50;9
2025-09-23;16:24:49;discharging;3.325;49;9
2025-09-23;16:24:51;discharging;3.326;49;9
2025-09-23;16:24:53;discharging;3.325;49;10
2025-09-23;16:24:55;discharging;3.326;49;10
2025-09-23;16:24:57;discharging;3.325;50;10
2025-09-23;16:24:59;discharging;3.326;49;11
2025-09-23;16:25:01;discharging;3.325;50;11
2025-09-23;16:25:03;discharging;3.325;49;11
2025-09-23;16:25:05;discharging;3.326;49;11
2025-09-23;16:25:07;discharging;3.325;49;12
2025-09-23;16:25:09;discharging;3.326;49;12
2025-09-23;16:25:11;discharging;3.325;49;12
2025-09-23;16:25:13;discharging;3.326;49;13
2025-09-23;16:25:15;discharging;3.326;50;13
2025-09-23;16:25:17;discharging;3.326;49;13
2025-09-23;16:25:19;discharging;3.339;50;13
2025-09-23;16:25:21;discharging;3.325;49;14
2025-09-23;16:25:23;discharging;3.325;49;14
2025-09-23;16:25:25;discharging;3.325;49;14
2025-09-23;16:25:27;discharging;3.325;49;14
2025-09-23;16:25:29;discharging;3.326;50;15
2025-09-23;16:25:31;discharging;3.325;49;15
2025-09-23;16:25:33;discharging;3.326;49;15
2025-09-23;16:25:35;discharging;3.324;49;16
2025-09-23;16:25:37;discharging;3.325;49;16
2025-09-23;16:25:39;discharging;3.324;49;16
2025-09-23;16:25:41;discharging;3.326;49;16
2025-09-23;16:25:43;discharging;3.323;49;17
2025-09-23;16:25:45;discharging;3.323;49;17
2025-09-23;16:25:47;discharging;3.323;49;17
2025-09-23;16:25:49;discharging;3.322;49;18
2025-09-23;16:25:51;discharging;3.322;49;18
2025-09-23;16:25:53;discharging;3.32;49;18
2025-09-23;16:25:55;discharging;3.321;49;18
2025-09-23;16:25:57;discharging;3.321;49;19
2025-09-23;16:25:59;discharging;3.318;49;19
2025-09-23;16:26:01;discharging;3.317;50;19
2025-09-23;16:26:03;discharging;3.317;49;20
2025-09-23;16:26:05;discharging;3.317;49;20
2025-09-23;16:26:07;discharging;3.317;49;20
2025-09-23;16:26:09;discharging;3.336;49;20
2025-09-23;16:26:11;discharging;3.318;49;21
2025-09-23;16:26:13;discharging;3.318;49;21
2025-09-23;16:26:15;discharging;3.317;50;21
2025-09-23;16:26:17;discharging;3.317;49;21
2025-09-23;16:26:19;discharging;3.317;49;22
2025-09-23;16:26:21;discharging;3.317;49;22
2025-09-23;16:26:23;discharging;3.318;49;22
2025-09-23;16:26:25;discharging;3.318;49;23
2025-09-23;16:26:27;discharging;3.317;49;23
2025-09-23;16:26:29;discharging;3.317;49;23
2025-09-23;16:26:31;discharging;3.317;49;23
2025-09-23;16:26:33;discharging;3.317;49;24
2025-09-23;16:26:35;discharging;3.317;49;24
2025-09-23;16:26:37;discharging;3.317;49;24
2025-09-23;16:26:39;discharging;3.316;49;25
2025-09-23;16:26:41;discharging;3.314;49;25
2025-09-23;16:26:43;discharging;3.317;49;25
2025-09-23;16:26:45;discharging;3.315;50;25
2025-09-23;16:26:47;discharging;3.315;49;26
2025-09-23;16:26:49;discharging;3.316;49;26
2025-09-23;16:26:51;discharging;3.316;49;26
2025-09-23;16:26:53;discharging;3.312;49;26
2025-09-23;16:26:55;discharging;3.314;49;27
2025-09-23;16:26:57;discharging;3.313;50;27
2025-09-23;16:26:59;discharging;3.311;50;27
2025-09-23;16:27:01;discharging;3.315;49;28
2025-09-23;16:27:03;discharging;3.312;49;28
2025-09-23;16:27:05;discharging;3.317;49;28
2025-09-23;16:27:07;discharging;3.311;49;28
2025-09-23;16:27:09;discharging;3.308;50;29
2025-09-23;16:27:11;discharging;3.308;50;29
2025-09-23;16:27:13;discharging;3.31;49;29
2025-09-23;16:27:15;discharging;3.307;50;30
2025-09-23;16:27:17;discharging;3.308;49;30
2025-09-23;16:27:19;discharging;3.307;49;30
2025-09-23;16:27:21;discharging;3.306;50;30
2025-09-23;16:27:23;discharging;3.306;49;31
2025-09-23;16:27:25;discharging;3.307;49;31
2025-09-23;16:27:27;discharging;3.307;49;31
2025-09-23;16:27:29;discharging;3.308;49;32
2025-09-23;16:27:31;discharging;3.307;50;32
2025-09-23;16:27:33;discharging;3.307;50;32
2025-09-23;16:27:35;discharging;3.307;49;32
2025-09-23;16:27:37;discharging;3.307;49;33
2025-09-23;16:27:39;discharging;3.307;49;33
2025-09-23;16:27:41;discharging;3.306;49;33
2025-09-23;16:27:43;discharging;3.305;50;34
2025-09-23;16:27:45;discharging;3.306;50;34
2025-09-23;16:27:47;discharging;3.307;49;34
2025-09-23;16:27:49;discharging;3.306;49;34
2025-09-23;16:27:51;discharging;3.306;49;35
2025-09-23;16:27:53;discharging;3.307;49;35
2025-09-23;16:27:55;discharging;3.306;49;35
2025-09-23;16:27:57;discharging;3.306;50;36
2025-09-23;16:27:59;discharging;3.306;50;36
2025-09-23;16:28:01;discharging;3.306;49;36
2025-09-23;16:28:03;discharging;3.306;49;36
2025-09-23;16:28:05;discharging;3.306;49;37
2025-09-23;16:28:07;discharging;3.306;49;37
2025-09-23;16:28:09;discharging;3.304;50;37
2025-09-23;16:28:11;discharging;3.305;50;37
2025-09-23;16:28:13;discharging;3.304;50;38
2025-09-23;16:28:15;discharging;3.303;49;38
2025-09-23;16:28:17;discharging;3.304;49;38
2025-09-23;16:28:19;discharging;3.304;49;39
2025-09-23;16:28:21;discharging;3.304;49;39
2025-09-23;16:28:23;discharging;3.304;50;39
2025-09-23;16:28:25;discharging;3.303;50;39
2025-09-23;16:28:27;discharging;3.304;49;40
2025-09-23;16:28:29;discharging;3.304;49;40
2025-09-23;16:28:31;discharging;3.304;49;40
2025-09-23;16:28:33;discharging;3.304;49;41
2025-09-23;16:28:35;discharging;3.303;50;41
2025-09-23;16:28:37;discharging;3.303;50;41
2025-09-23;16:28:39;discharging;3.303;50;41
2025-09-23;16:28:41;discharging;3.304;49;42
2025-09-23;16:28:43;discharging;3.302;49;42
2025-09-23;16:28:45;discharging;3.303;49;42
2025-09-23;16:28:47;discharging;3.303;49;43
2025-09-23;16:28:49;discharging;3.301;50;43
2025-09-23;16:28:51;discharging;3.301;50;43
2025-09-23;16:28:53;discharging;3.301;50;43
2025-09-23;16:28:55;discharging;3.302;49;44
2025-09-23;16:28:57;discharging;3.303;49;44
2025-09-23;16:28:59;discharging;3.302;49;44
2025-09-23;16:29:01;discharging;3.301;50;44
2025-09-23;16:29:03;discharging;3.301;50;45
2025-09-23;16:29:05;discharging;3.301;50;45
2025-09-23;16:29:07;discharging;3.302;49;45
2025-09-23;16:29:09;discharging;3.302;49;46
2025-09-23;16:29:11;discharging;3.302;49;46
2025-09-23;16:29:13;discharging;3.302;49;46
2025-09-23;16:29:15;discharging;3.302;50;46
2025-09-23;16:29:17;discharging;3.301;50;47
2025-09-23;16:29:19;discharging;3.301;50;47
2025-09-23;16:29:21;discharging;3.302;49;47
2025-09-23;16:29:23;discharging;3.302;49;48
2025-09-23;16:29:25;discharging;3.302;49;48
2025-09-23;16:29:27;discharging;3.301;50;48
2025-09-23;16:29:29;discharging;3.301;50;48
2025-09-23;16:29:31;discharging;3.301;50;49
2025-09-23;16:29:33;discharging;3.301;50;49
2025-09-23;16:29:35;discharging;3.302;49;49
2025-09-23;16:29:37;discharging;3.302;49;50
2025-09-23;16:29:39;discharging;3.302;49;50
2025-09-23;16:29:41;discharging;3.301;50;50
2025-09-23;16:29:43;discharging;3.301;50;50
2025-09-23;16:29:45;discharging;3.301;50;51
2025-09-23;16:29:47;discharging;3.301;50;51
2025-09-23;16:29:49;discharging;3.302;49;51
2025-09-23;16:29:51;discharging;3.302;49;51
2025-09-23;16:29:53;discharging;3.301;50;52
2025-09-23;16:29:55;discharging;3.301;50;52
2025-09-23;16:29:57;discharging;3.301;50;52
2025-09-23;16:29:59;discharging;3.301;50;53
2025-09-23;16:30:01;discharging;3.302;49;53
2025-09-23;16:30:03;discharging;3.302;49;53
2025-09-23;16:30:05;discharging;3.302;49;53
2025-09-23;16:30:07;discharging;3.301;50;54
2025-09-23;16:30:09;discharging;3.301;50;54
2025-09-23;16:30:11;discharging;3.301;50;54
2025-09-23;16:30:13;discharging;3.301;50;55
2025-09-23;16:30:15;discharging;3.302;49;55
2025-09-23;16:30:17;discharging;3.301;49;55
2025-09-23;16:30:19;discharging;3.301;50;55
2025-09-23;16:30:21;discharging;3.3;50;56
2025-09-23;16:30:23;discharging;3.3;49;56
2025-09-23;16:30:25;discharging;3.3;49;56
2025-09-23;16:30:27;discharging;3.3;49;57
2025-09-23;16:30:29;discharging;3.3;50;57
2025-09-23;16:30:31;discharging;3.3;50;57
2025-09-23;16:30:33;discharging;3.3;50;57
2025-09-23;16:30:35;discharging;3.3;50;58
2025-09-23;16:30:37;discharging;3.3;50;58
2025-09-23;16:30:39;discharging;3.301;50;58
2025-09-23;16:30:41;discharging;3.299;50;58
2025-09-23;16:30:43;discharging;3.3;49;59
2025-09-23;16:30:45;discharging;3.3;50;59
2025-09-23;16:30:47;discharging;3.3;50;59
2025-09-23;16:30:49;discharging;3.3;50;60
2025-09-23;16:30:51;discharging;3.301;49;60
2025-09-23;16:30:53;discharging;3.3;50;60
2025-09-23;16:30:55;discharging;3.301;49;60
2025-09-23;16:30:57;discharging;3.3;50;61
2025-09-23;16:30:59;discharging;3.302;49;61
2025-09-23;16:31:01;discharging;3.301;50;61
2025-09-23;16:31:03;discharging;3.301;50;62
2025-09-23;16:31:05;discharging;3.301;50;62
2025-09-23;16:31:07;discharging;3.301;50;62
2025-09-23;16:31:09;discharging;3.301;50;62
2025-09-23;16:31:11;discharging;3.302;49;63
2025-09-23;16:31:13;discharging;3.301;50;63
2025-09-23;16:31:15;discharging;3.302;49;63
2025-09-23;16:31:17;discharging;3.302;50;64
2025-09-23;16:31:19;discharging;3.302;50;64
2025-09-23;16:31:21;discharging;3.302;50;64
2025-09-23;16:31:23;discharging;3.301;50;64
2025-09-23;16:31:25;discharging;3.301;49;65
2025-09-23;16:31:27;discharging;3.305;50;65
2025-09-23;16:31:29;discharging;3.296;50;65
2025-09-23;16:31:31;discharging;3.301;49;65
2025-09-23;16:31:33;discharging;3.304;50;66
2025-09-23;16:31:35;discharging;3.317;50;66
2025-09-23;16:31:37;discharging;3.307;49;66
2025-09-23;16:31:39;discharging;3.312;50;67
2025-09-23;16:31:41;discharging;3.3;49;67
2025-09-23;16:31:43;discharging;3.303;50;67
2025-09-23;16:31:45;discharging;3.301;49;67
2025-09-23;16:31:47;discharging;3.305;50;68
2025-09-23;16:31:49;discharging;3.303;50;68
2025-09-23;16:31:51;discharging;3.302;49;68
2025-09-23;16:31:53;discharging;3.3;49;69
2025-09-23;16:31:55;discharging;3.301;50;69
2025-09-23;16:31:57;discharging;3.301;49;69
2025-09-23;16:31:59;discharging;3.3;50;69
2025-09-23;16:32:01;discharging;3.303;50;70
2025-09-23;16:32:03;discharging;3.298;50;70
2025-09-23;16:32:05;discharging;3.295;49;70
2025-09-23;16:32:07;discharging;3.298;49;71
2025-09-23;16:32:09;discharging;3.301;50;71
2025-09-23;16:32:11;discharging;3.3;49;71
2025-09-23;16:32:13;discharging;3.316;50;71
2025-09-23;16:32:15;discharging;3.301;49;72
2025-09-23;16:32:17;discharging;3.3;49;72
2025-09-23;16:32:19;discharging;3.304;49;72
2025-09-23;16:32:21;discharging;3.301;50;73
2025-09-23;16:32:23;discharging;3.301;49;73
2025-09-23;16:32:25;discharging;3.302;49;73
2025-09-23;16:32:27;discharging;3.301;49;73
2025-09-23;16:32:29;discharging;3.306;50;74
2025-09-23;16:32:31;discharging;3.301;49;74
2025-09-23;16:32:33;discharging;3.3;50;74
2025-09-23;16:32:35;discharging;3.302;49;74
2025-09-23;16:32:37;discharging;3.301;50;75
2025-09-23;16:32:39;discharging;3.302;49;75
2025-09-23;16:32:41;discharging;3.307;49;75
2025-09-23;16:32:43;discharging;3.297;49;76
2025-09-23;16:32:45;discharging;3.301;49;76
2025-09-23;16:32:47;discharging;3.297;49;76
2025-09-23;16:32:49;discharging;3.302;49;76
2025-09-23;16:32:51;discharging;3.306;49;77
2025-09-23;16:32:53;discharging;3.317;49;77
2025-09-23;16:32:55;discharging;3.3;49;77
2025-09-23;16:32:57;discharging;3.31;49;78
2025-09-23;16:32:59;discharging;3.305;49;78
2025-09-23;16:33:01;discharging;3.3;49;78
2025-09-23;16:33:03;discharging;3.298;49;78
2025-09-23;16:33:05;discharging;3.299;50;79
2025-09-23;16:33:07;discharging;3.3;49;79
2025-09-23;16:33:09;discharging;3.3;49;79
2025-09-23;16:33:11;discharging;3.305;49;80
2025-09-23;16:33:13;discharging;3.304;49;80
2025-09-23;16:33:15;discharging;3.302;49;80
2025-09-23;16:33:17;discharging;3.301;49;80
2025-09-23;16:33:19;discharging;3.304;50;81
2025-09-23;16:33:21;discharging;3.301;49;81
2025-09-23;16:33:23;discharging;3.309;49;81
2025-09-23;16:33:25;discharging;3.303;50;82
2025-09-23;16:33:27;discharging;3.301;50;82
2025-09-23;16:33:29;discharging;3.301;50;82
2025-09-23;16:33:31;discharging;3.302;50;82
2025-09-23;16:33:33;discharging;3.301;49;83
2025-09-23;16:33:35;discharging;3.302;49;83
2025-09-23;16:33:37;discharging;3.308;49;83
2025-09-23;16:33:39;discharging;3.303;49;83
2025-09-23;16:33:41;discharging;3.305;49;84
2025-09-23;16:33:43;discharging;3.303;49;84
2025-09-23;16:33:45;discharging;3.301;50;84
2025-09-23;16:33:47;discharging;3.302;49;85
2025-09-23;16:33:49;discharging;3.302;49;85
2025-09-23;16:33:51;discharging;3.305;49;85
2025-09-23;16:33:53;discharging;3.303;50;85
2025-09-23;16:33:55;discharging;3.302;49;86
2025-09-23;16:33:57;discharging;3.302;49;86
2025-09-23;16:33:59;discharging;3.301;50;86
2025-09-23;16:34:01;discharging;3.306;50;87
2025-09-23;16:34:03;discharging;3.303;49;87
2025-09-23;16:34:05;discharging;3.301;49;87
2025-09-23;16:34:07;discharging;3.301;49;87
2025-09-23;16:34:09;discharging;3.302;49;88
2025-09-23;16:34:11;discharging;3.302;49;88
2025-09-23;16:34:13;discharging;3.302;49;88
2025-09-23;16:34:15;discharging;3.301;49;89
2025-09-23;16:34:17;discharging;3.307;49;89
2025-09-23;16:34:19;discharging;3.302;49;89
2025-09-23;16:34:21;discharging;3.302;49;89
2025-09-23;16:34:23;discharging;3.301;49;90
2025-09-23;16:34:25;discharging;3.301;50;90
2025-09-23;16:34:27;discharging;3.302;49;90
2025-09-23;16:34:29;discharging;3.301;49;91
2025-09-23;16:34:31;discharging;3.301;49;91
2025-09-23;16:34:33;discharging;3.301;49;91
2025-09-23;16:34:35;discharging;3.301;49;91
2025-09-23;16:34:37;discharging;3.301;50;92
2025-09-23;16:34:39;discharging;3.301;50;92
2025-09-23;16:34:41;discharging;3.301;49;92
2025-09-23;16:34:43;discharging;3.301;49;93
2025-09-23;16:34:45;discharging;3.301;50;93
2025-09-23;16:34:47;discharging;3.301;50;93
2025-09-23;16:34:49;discharging;3.301;50;93
2025-09-23;16:34:51;discharging;3.302;49;94
2025-09-23;16:34:53;discharging;3.302;49;94
2025-09-23;16:34:55;discharging;3.302;49;94
2025-09-23;16:34:57;discharging;3.301;50;94
2025-09-23;16:34:59;discharging;3.301;50;95
2025-09-23;16:35:01;discharging;3.301;50;95
2025-09-23;16:35:03;discharging;3.301;50;95
2025-09-23;16:35:05;discharging;3.302;49;96
2025-09-23;16:35:07;discharging;3.301;49;96
2025-09-23;16:35:09;discharging;3.302;49;96
2025-09-23;16:35:11;discharging;3.301;50;96
2025-09-23;16:35:13;discharging;3.302;50;97
2025-09-23;16:35:15;discharging;3.302;50;97
2025-09-23;16:35:17;discharging;3.301;50;97
2025-09-23;16:35:19;discharging;3.302;49;98
2025-09-23;16:35:21;discharging;3.302;49;98
2025-09-23;16:35:23;discharging;3.301;50;98
2025-09-23;16:35:25;discharging;3.302;50;98
2025-09-23;16:35:27;discharging;3.302;50;99
2025-09-23;16:35:29;discharging;3.302;50;99
2025-09-23;16:35:31;discharging;3.302;49;99
2025-09-23;16:35:33;discharging;3.302;49;100
2025-09-23;16:35:35;discharging;3.302;49;100
2025-09-23;16:35:37;discharging;3.303;50;100
2025-09-23;16:35:39;discharging;3.303;50;100
2025-09-23;16:35:41;discharging;3.303;50;101
2025-09-23;16:35:43;discharging;3.303;50;101
2025-09-23;16:35:45;discharging;3.303;49;101
2025-09-23;16:35:47;discharging;3.304;49;102
2025-09-23;16:35:49;discharging;3.304;49;102
2025-09-23;16:35:51;discharging;3.305;49;102
2025-09-23;16:35:53;discharging;3.305;50;102
2025-09-23;16:35:55;discharging;3.304;50;103
2025-09-23;16:35:57;discharging;3.303;50;103
2025-09-23;16:35:59;discharging;3.306;49;103
2025-09-23;16:36:01;discharging;3.307;49;104
2025-09-23;16:36:03;discharging;3.306;49;104
2025-09-23;16:36:05;discharging;3.306;49;104
2025-09-23;16:36:07;discharging;3.306;49;104
2025-09-23;16:36:09;discharging;3.305;50;105
2025-09-23;16:36:11;discharging;3.305;50;105
2025-09-23;16:36:13;discharging;3.305;50;105
2025-09-23;16:36:15;discharging;3.306;49;105
2025-09-23;16:36:17;discharging;3.305;49;106
2025-09-23;16:36:19;discharging;3.305;49;106
2025-09-23;16:36:21;discharging;3.305;49;106
2025-09-23;16:36:23;discharging;3.305;50;107
2025-09-23;16:36:25;discharging;3.306;50;107
2025-09-23;16:36:27;discharging;3.307;50;107
2025-09-23;16:36:29;discharging;3.306;50;107
2025-09-23;16:36:31;discharging;3.306;50;108
2025-09-23;16:36:33;discharging;3.307;49;108
2025-09-23;16:36:35;discharging;3.307;49;108
2025-09-23;16:36:37;discharging;3.307;50;109
2025-09-23;16:36:39;discharging;3.307;50;109
2025-09-23;16:36:41;discharging;3.306;50;109
2025-09-23;16:36:43;discharging;3.307;50;109
2025-09-23;16:36:45;discharging;3.306;50;110
2025-09-23;16:36:47;discharging;3.308;49;110
[...]
2025-09-23;17:13:17;discharging;3.182;49;417
2025-09-23;17:13:19;discharging;3.182;50;417
2025-09-23;17:13:21;discharging;3.178;50;418
2025-09-23;17:13:23;discharging;3.183;49;418
2025-09-23;17:13:25;discharging;3.182;50;418
2025-09-23;17:13:27;discharging;3.178;50;418
2025-09-23;17:13:29;discharging;3.183;49;419
2025-09-23;17:13:31;discharging;3.181;50;419
2025-09-23;17:13:33;discharging;3.178;49;419
2025-09-23;17:13:35;discharging;3.183;49;420
2025-09-23;17:13:37;discharging;3.182;50;420
2025-09-23;17:13:39;discharging;3.178;50;420
2025-09-23;17:13:41;discharging;3.182;49;420
2025-09-23;17:13:43;discharging;3.181;50;421
2025-09-23;17:13:45;discharging;3.179;50;421
2025-09-23;17:13:47;discharging;3.181;49;421
2025-09-23;17:13:49;discharging;3.182;50;422
2025-09-23;17:13:51;discharging;3.18;50;422
2025-09-23;17:13:53;discharging;3.178;49;422
2025-09-23;17:13:55;discharging;3.183;50;422
2025-09-23;17:13:57;discharging;3.189;50;423
2025-09-23;17:13:59;discharging;3.178;50;423
2025-09-23;17:14:01;discharging;3.186;49;423
2025-09-23;17:14:03;discharging;3.189;50;424
2025-09-23;17:14:05;discharging;3.178;50;424
2025-09-23;17:14:07;discharging;3.178;49;424
2025-09-23;17:14:09;discharging;3.18;50;424
2025-09-23;17:14:11;discharging;3.176;50;425
2025-09-23;17:14:13;discharging;3.172;50;425
2025-09-23;17:14:15;discharging;3.176;49;425
2025-09-23;17:14:17;discharging;3.176;50;426
2025-09-23;17:14:19;discharging;3.178;50;426
2025-09-23;17:14:21;discharging;3.176;50;426
2025-09-23;17:14:23;discharging;3.176;49;426
2025-09-23;17:14:25;discharging;3.175;50;427
2025-09-23;17:14:27;discharging;3.174;50;427
2025-09-23;17:14:29;discharging;3.171;50;427
2025-09-23;17:14:31;discharging;3.174;49;427
2025-09-23;17:14:33;discharging;3.175;49;428
2025-09-23;17:14:35;discharging;3.175;50;428
2025-09-23;17:14:37;discharging;3.173;50;428
2025-09-23;17:14:39;discharging;3.172;50;429
2025-09-23;17:14:41;discharging;3.171;49;429
2025-09-23;17:14:43;discharging;3.175;49;429
2025-09-23;17:14:45;discharging;3.175;50;429
2025-09-23;17:14:47;discharging;3.173;50;430
2025-09-23;17:14:49;discharging;3.172;50;430
2025-09-23;17:14:51;discharging;3.171;50;430
2025-09-23;17:14:53;discharging;3.174;49;431
2025-09-23;17:14:55;discharging;3.174;49;431
2025-09-23;17:14:57;discharging;3.175;49;431
2025-09-23;17:14:59;discharging;3.174;50;431
2025-09-23;17:15:01;discharging;3.173;50;432
2025-09-23;17:15:03;discharging;3.172;50;432
2025-09-23;17:15:05;discharging;3.171;50;432
2025-09-23;17:15:07;discharging;3.163;49;433
2025-09-23;17:15:09;discharging;3.163;49;433
2025-09-23;17:15:11;discharging;3.169;49;433
2025-09-23;17:15:13;discharging;3.178;49;433
2025-09-23;17:15:15;discharging;3.168;49;434
2025-09-23;17:15:17;discharging;3.171;49;434
2025-09-23;17:15:19;discharging;3.179;49;434
2025-09-23;17:15:21;discharging;3.179;50;434
2025-09-23;17:15:23;discharging;3.168;50;435
2025-09-23;17:15:25;discharging;3.167;50;435
2025-09-23;17:15:27;discharging;3.167;50;435
2025-09-23;17:15:29;discharging;3.166;50;436
2025-09-23;17:15:31;discharging;3.166;50;436
2025-09-23;17:15:33;discharging;3.165;50;436
2025-09-23;17:15:35;discharging;3.165;50;436
2025-09-23;17:15:37;discharging;3.166;50;437
2025-09-23;17:15:39;discharging;3.165;50;437
2025-09-23;17:15:41;discharging;3.166;49;437
2025-09-23;17:15:43;discharging;3.166;49;438
2025-09-23;17:15:45;discharging;3.166;49;438
2025-09-23;17:15:47;discharging;3.167;49;438
2025-09-23;17:15:49;discharging;3.166;49;438
2025-09-23;17:15:51;discharging;3.165;49;439
2025-09-23;17:15:53;discharging;3.173;49;439
2025-09-23;17:15:55;discharging;3.171;49;439
2025-09-23;17:15:57;discharging;3.155;49;439
2025-09-23;17:15:59;discharging;3.156;50;440
2025-09-23;17:16:01;discharging;3.157;49;440
2025-09-23;17:16:03;discharging;3.156;49;440
2025-09-23;17:16:05;discharging;3.155;50;441
2025-09-23;17:16:07;discharging;3.156;49;441
2025-09-23;17:16:09;discharging;3.155;50;441
2025-09-23;17:16:11;discharging;3.156;49;441
2025-09-23;17:16:13;discharging;3.154;50;442
2025-09-23;17:16:15;discharging;3.152;49;442
2025-09-23;17:16:17;discharging;3.152;49;442
2025-09-23;17:16:19;discharging;3.148;49;443
2025-09-23;17:16:21;discharging;3.149;49;443
2025-09-23;17:16:23;discharging;3.148;49;443
2025-09-23;17:16:25;discharging;3.159;49;443
2025-09-23;17:16:27;discharging;3.148;50;444
2025-09-23;17:16:29;discharging;3.149;49;444
2025-09-23;17:16:31;discharging;3.149;49;444
2025-09-23;17:16:33;discharging;3.148;49;445
2025-09-23;17:16:35;discharging;3.146;49;445
2025-09-23;17:16:37;discharging;3.144;49;445
2025-09-23;17:16:39;discharging;3.144;49;445
2025-09-23;17:16:41;discharging;3.141;49;446
2025-09-23;17:16:43;discharging;3.14;49;446
2025-09-23;17:16:45;discharging;3.147;49;446
2025-09-23;17:16:47;discharging;3.141;49;446
2025-09-23;17:16:49;discharging;3.14;49;447
2025-09-23;17:16:51;discharging;3.14;50;447
2025-09-23;17:16:53;discharging;3.137;49;447
2025-09-23;17:16:55;discharging;3.118;49;448
2025-09-23;17:16:57;discharging;3.101;50;448
2025-09-23;17:16:59;discharging;3.087;49;448
2025-09-23;17:17:01;discharging;3.086;49;448
2025-09-23;17:17:03;discharging;3.084;50;449
2025-09-23;17:17:05;discharging;3.095;49;449
2025-09-23;17:17:07;discharging;3.083;50;449
2025-09-23;17:17:09;discharging;3.099;50;450
2025-09-23;17:17:11;discharging;3.095;50;450
2025-09-23;17:17:13;discharging;3.092;50;450
2025-09-23;17:17:15;discharging;3.089;50;450
2025-09-23;17:17:17;discharging;3.09;50;451
2025-09-23;17:17:19;discharging;3.088;50;451
2025-09-23;17:17:21;discharging;3.085;50;451
2025-09-23;17:17:23;discharging;3.083;49;451
2025-09-23;17:17:25;discharging;3.078;49;452
2025-09-23;17:17:27;discharging;3.086;49;452
2025-09-23;17:17:29;discharging;3.071;50;452
2025-09-23;17:17:31;discharging;3.073;50;453
2025-09-23;17:17:33;discharging;3.089;49;453
2025-09-23;17:17:35;discharging;3.069;49;453
2025-09-23;17:17:37;discharging;3.067;49;453
2025-09-23;17:17:39;discharging;3.068;49;454
2025-09-23;17:17:41;discharging;3.063;49;454
2025-09-23;17:17:43;discharging;3.06;49;454
2025-09-23;17:17:45;discharging;3.083;49;455
2025-09-23;17:17:47;discharging;3.084;50;455
2025-09-23;17:17:49;discharging;3.08;49;455
2025-09-23;17:17:51;discharging;3.063;49;455
2025-09-23;17:17:53;discharging;3.068;50;456
2025-09-23;17:17:55;discharging;3.067;49;456
2025-09-23;17:17:57;discharging;3.063;50;456
2025-09-23;17:17:59;discharging;3.082;49;457
2025-09-23;17:18:01;discharging;3.063;49;457
2025-09-23;17:18:03;discharging;3.063;49;457
2025-09-23;17:18:05;discharging;3.065;49;457
2025-09-23;17:18:07;discharging;3.072;49;458
2025-09-23;17:18:09;discharging;3.062;49;458
2025-09-23;17:18:11;discharging;3.063;49;458
2025-09-23;17:18:13;discharging;3.064;49;458
2025-09-23;17:18:15;discharging;3.07;50;459
2025-09-23;17:18:17;discharging;3.055;49;459
2025-09-23;17:18:19;discharging;3.062;49;459
2025-09-23;17:18:21;discharging;3.058;49;460
2025-09-23;17:18:23;discharging;3.055;49;460
2025-09-23;17:18:25;discharging;3.063;49;460
2025-09-23;17:18:27;discharging;3.065;50;460
2025-09-23;17:18:29;discharging;3.066;49;461
2025-09-23;17:18:31;discharging;3.078;50;461
2025-09-23;17:18:33;discharging;3.057;49;461
2025-09-23;17:18:35;discharging;3.06;49;462
2025-09-23;17:18:37;discharging;3.063;49;462
2025-09-23;17:18:39;discharging;3.063;50;462
2025-09-23;17:18:41;discharging;3.059;49;462
2025-09-23;17:18:43;discharging;3.062;50;463
2025-09-23;17:18:45;discharging;3.063;49;463
2025-09-23;17:18:47;discharging;3.064;50;463
2025-09-23;17:18:49;discharging;3.068;50;463
2025-09-23;17:18:51;discharging;3.068;50;464
2025-09-23;17:18:53;discharging;3.078;49;464
2025-09-23;17:18:55;discharging;3.088;50;464
2025-09-23;17:18:57;discharging;3.071;49;465
2025-09-23;17:18:59;discharging;3.067;49;465
2025-09-23;17:19:01;discharging;3.07;49;465
2025-09-23;17:19:03;discharging;3.068;49;465
2025-09-23;17:19:05;discharging;3.068;50;466
2025-09-23;17:19:07;discharging;3.079;50;466
2025-09-23;17:19:09;discharging;3.068;50;466
2025-09-23;17:19:11;discharging;3.067;50;467
2025-09-23;17:19:13;discharging;3.066;50;467
2025-09-23;17:19:15;discharging;3.094;50;467
2025-09-23;17:19:17;discharging;3.065;50;467
2025-09-23;17:19:19;discharging;3.068;49;468
2025-09-23;17:19:21;discharging;3.072;49;468
2025-09-23;17:19:23;discharging;3.068;50;468
2025-09-23;17:19:25;discharging;3.066;50;469
2025-09-23;17:19:27;discharging;3.068;50;469
2025-09-23;17:19:29;discharging;3.063;49;469
2025-09-23;17:19:31;discharging;3.062;49;469
2025-09-23;17:19:33;discharging;3.07;49;470
2025-09-23;17:19:35;discharging;3.062;49;470
2025-09-23;17:19:37;discharging;2.993;49;470
2025-09-23;17:19:39;rest;3.757;0;470
2025-09-23;17:19:41;rest;3.761;0;470