File: monitor_Icharger/1rest_1000_13.csv
date;system_hour;cycle_time;battery_state;voltage[V];current[mA];capacity[mAh]
2025-09-23;14:47:28;5:46:08;rest;4.121;0.0;747
2025-09-23;14:47:32;0:00:04;rest;4.12;0.0;747
2025-09-23;14:47:36;0:00:08;rest;4.124;0.0;747
2025-09-23;14:47:40;0:00:12;rest;4.12;0.0;747
2025-09-23;14:47:44;0:00:16;rest;4.12;0.0;747
2025-09-23;14:47:48;0:00:20;rest;4.12;0.0;747
2025-09-23;14:47:52;0:00:24;rest;4.12;0.0;747
2025-09-23;14:47:56;0:00:28;rest;4.12;0.0;747
2025-09-23;14:48:00;0:00:32;rest;4.12;0.0;747
2025-09-23;14:48:04;0:00:36;rest;4.12;0.0;747
2025-09-23;14:48:08;0:00:40;rest;4.125;0.0;747
2025-09-23;14:48:12;0:00:44;rest;4.12;0.0;747
2025-09-23;14:48:16;0:00:48;rest;4.12;0.0;747
2025-09-23;14:48:20;0:00:52;rest;4.12;0.0;747
2025-09-23;14:48:24;0:00:56;rest;4.12;0.0;747
2025-09-23;14:48:28;0:01:00;rest;4.12;0.0;747
2025-09-23;14:48:32;0:01:04;rest;4.12;0.0;747
2025-09-23;14:48:36;0:01:08;rest;4.12;0.0;747
2025-09-23;14:48:40;0:01:12;rest;4.12;0.0;747
2025-09-23;14:48:44;0:01:16;rest;4.12;0.0;747
2025-09-23;14:48:48;0:01:20;rest;4.12;0.0;747
2025-09-23;14:48:52;0:01:24;rest;4.12;0.0;747
2025-09-23;14:48:56;0:01:28;rest;4.12;0.0;747
2025-09-23;14:49:00;0:01:32;rest;4.12;0.0;747
2025-09-23;14:49:04;0:01:36;rest;4.12;0.0;747
2025-09-23;14:49:08;0:01:40;rest;4.12;0.0;747
2025-09-23;14:49:12;0:01:44;rest;4.12;0.0;747
2025-09-23;14:49:16;0:01:48;rest;4.12;0.0;747
2025-09-23;14:49:20;0:01:52;rest;4.12;0.0;747
2025-09-23;14:49:24;0:01:56;rest;4.12;0.0;747
2025-09-23;14:49:28;0:02:00;rest;4.12;0.0;747
2025-09-23;14:49:32;0:02:04;rest;4.12;0.0;747
2025-09-23;14:49:36;0:02:08;rest;4.12;0.0;747
2025-09-23;14:49:40;0:02:12;rest;4.12;0.0;747
2025-09-23;14:49:44;0:02:16;rest;4.12;0.0;747
2025-09-23;14:49:48;0:02:20;rest;4.12;0.0;747
2025-09-23;14:49:52;0:02:24;rest;4.12;0.0;747
2025-09-23;14:49:56;0:02:28;rest;4.12;0.0;747
2025-09-23;14:50:00;0:02:32;rest;4.12;0.0;747
2025-09-23;14:50:04;0:02:36;rest;4.12;0.0;747
2025-09-23;14:50:08;0:02:40;rest;4.12;0.0;747
2025-09-23;14:50:12;0:02:44;rest;4.12;0.0;747
2025-09-23;14:50:16;0:02:48;rest;4.12;0.0;747
2025-09-23;14:50:20;0:02:52;rest;4.12;0.0;747
2025-09-23;14:50:24;0:02:56;rest;4.12;0.0;747
2025-09-23;14:50:28;0:03:00;rest;4.12;0.0;747
2025-09-23;14:50:32;0:03:04;rest;4.12;0.0;747
2025-09-23;14:50:36;0:03:08;rest;4.12;0.0;747
2025-09-23;14:50:40;0:03:12;rest;4.12;0.0;747
2025-09-23;14:50:44;0:03:16;rest;4.12;0.0;747
2025-09-23;14:50:48;0:03:20;rest;4.12;0.0;747
2025-09-23;14:50:52;0:03:24;rest;4.12;0.0;747
2025-09-23;14:50:56;0:03:28;rest;4.12;0.0;747
2025-09-23;14:51:00;0:03:32;rest;4.12;0.0;747
2025-09-23;14:51:04;0:03:36;rest;4.12;0.0;747
2025-09-23;14:51:08;0:03:40;rest;4.12;0.0;747
2025-09-23;14:51:12;0:03:44;rest;4.12;0.0;747
2025-09-23;14:51:16;0:03:48;rest;4.12;0.0;747
2025-09-23;14:51:20;0:03:52;rest;4.12;0.0;747
2025-09-23;14:51:24;0:03:56;rest;4.12;0.0;747
2025-09-23;14:51:28;0:04:00;rest;4.12;0.0;747
2025-09-23;14:51:32;0:04:04;rest;4.12;0.0;747
2025-09-23;14:51:36;0:04:08;rest;4.12;0.0;747
2025-09-23;14:51:40;0:04:12;rest;4.12;0.0;747
2025-09-23;14:51:44;0:04:16;rest;4.12;0.0;747
2025-09-23;14:51:48;0:04:20;rest;4.12;0.0;747
2025-09-23;14:51:52;0:04:24;rest;4.12;0.0;747
2025-09-23;14:51:56;0:04:28;rest;4.12;0.0;747
2025-09-23;14:52:00;0:04:32;rest;4.12;0.0;747
2025-09-23;14:52:04;0:04:36;rest;4.12;0.0;747
2025-09-23;14:52:08;0:04:40;rest;4.12;0.0;747
2025-09-23;14:52:12;0:04:44;rest;4.12;0.0;747
2025-09-23;14:52:16;0:04:48;rest;4.12;0.0;747
2025-09-23;14:52:20;0:04:52;rest;4.12;0.0;747
2025-09-23;14:52:24;0:04:56;rest;4.12;0.04;0
2025-09-23;14:52:28;0:05:00;discharging;3.456;0.37;0
2025-09-23;15:49:46;0:57:16;rest;3.924;0.0;480
2025-09-23;15:49:50;0:57:20;rest;3.922;0.0;480
2025-09-23;15:49:54;0:57:24;rest;3.927;0.0;480
2025-09-23;15:49:58;0:57:28;rest;3.927;0.0;480
2025-09-23;15:50:01;0:57:31;rest;3.927;0.0;480
2025-09-23;15:50:05;0:57:35;rest;3.927;0.0;480
2025-09-23;15:50:09;0:57:39;rest;3.927;0.0;480
2025-09-23;15:50:13;0:57:43;rest;3.927;0.0;480
2025-09-23;15:50:18;0:57:48;rest;3.927;0.0;480
2025-09-23;15:50:21;0:57:51;rest;3.927;0.0;480
2025-09-23;15:50:25;0:57:55;rest;3.927;0.0;480
2025-09-23;15:50:29;0:57:59;rest;3.927;0.0;480
2025-09-23;15:50:33;0:58:03;rest;3.927;0.0;480
2025-09-23;15:50:38;0:58:08;rest;3.927;0.0;480
2025-09-23;15:50:41;0:58:11;rest;3.927;0.0;480
2025-09-23;15:50:45;0:58:15;rest;3.927;0.0;480
2025-09-23;15:50:49;0:58:19;rest;3.935;0.0;480
2025-09-23;15:50:53;0:58:23;rest;3.927;0.0;480
2025-09-23;15:50:57;0:58:27;rest;3.927;0.0;480
2025-09-23;15:51:01;0:58:31;rest;3.927;0.0;480
2025-09-23;15:51:05;0:58:35;rest;3.927;0.0;480
2025-09-23;15:51:09;0:58:39;rest;3.933;0.0;480
2025-09-23;15:51:13;0:58:43;rest;3.934;0.0;480
2025-09-23;15:51:17;0:58:47;rest;3.927;0.0;480
2025-09-23;15:51:21;0:58:51;rest;3.927;0.0;480
2025-09-23;15:51:26;0:58:56;rest;3.927;0.0;480
2025-09-23;15:51:29;0:58:59;rest;3.927;0.0;480
2025-09-23;15:51:33;0:59:03;rest;3.927;0.0;480
2025-09-23;15:51:37;0:59:07;rest;3.931;0.0;480
2025-09-23;15:51:41;0:59:11;rest;3.927;0.0;480
2025-09-23;15:51:45;0:59:15;rest;3.927;0.0;480
2025-09-23;15:51:49;0:59:19;rest;3.929;0.0;480
2025-09-23;15:51:53;0:59:23;rest;3.929;0.0;480
2025-09-23;15:51:57;0:59:27;rest;3.928;0.0;480
2025-09-23;15:52:01;0:59:31;rest;3.929;0.0;480
2025-09-23;15:52:06;0:59:36;rest;3.93;0.0;480
2025-09-23;15:52:09;0:59:39;rest;3.929;0.0;480
2025-09-23;15:52:13;0:59:43;rest;3.929;0.0;480
2025-09-23;15:52:18;0:59:48;rest;3.93;0.0;480
2025-09-23;15:52:22;0:59:52;rest;3.931;0.0;480
2025-09-23;15:52:25;0:59:55;rest;3.932;0.0;480
2025-09-23;15:52:29;0:59:59;rest;3.932;0.0;480
2025-09-23;15:52:33;1:00:03;rest;3.931;0.0;480
2025-09-23;15:52:37;1:00:07;rest;3.931;0.0;480
2025-09-23;15:52:41;1:00:11;rest;3.932;0.0;480
2025-09-23;15:52:46;1:00:16;rest;3.935;0.0;480
2025-09-23;15:52:49;1:00:19;rest;3.929;0.0;480
2025-09-23;15:52:53;1:00:23;rest;3.932;0.0;480
2025-09-23;15:52:57;1:00:27;rest;3.931;0.0;480
2025-09-23;15:53:01;1:00:31;rest;3.932;0.0;480
2025-09-23;15:53:05;1:00:35;rest;3.935;0.0;480
2025-09-23;15:53:09;1:00:39;rest;3.934;0.0;480
2025-09-23;15:53:13;1:00:43;rest;3.934;0.0;480
2025-09-23;15:53:17;1:00:47;rest;3.931;0.0;480
2025-09-23;15:53:22;1:00:52;rest;3.932;0.0;480
2025-09-23;15:53:26;1:00:56;rest;3.935;0.0;480
2025-09-23;15:53:29;1:00:59;rest;3.933;0.0;480
2025-09-23;15:53:33;1:01:03;rest;3.933;0.0;480
2025-09-23;15:53:37;1:01:07;rest;3.934;0.0;480
2025-09-23;15:53:41;1:01:11;rest;3.932;0.0;480
2025-09-23;15:53:45;1:01:15;rest;3.934;0.0;480
2025-09-23;15:53:49;1:01:19;rest;3.934;0.0;480
2025-09-23;15:53:53;1:01:23;rest;3.935;0.0;480
2025-09-23;15:53:57;1:01:27;rest;3.934;0.0;480
2025-09-23;15:54:01;1:01:31;rest;3.935;0.0;480
2025-09-23;15:54:05;1:01:35;rest;3.935;0.0;480
2025-09-23;15:54:09;1:01:39;rest;3.935;0.0;480
2025-09-23;15:54:13;1:01:43;rest;3.934;0.0;480
2025-09-23;15:54:17;1:01:47;rest;3.935;0.0;480
2025-09-23;15:54:21;1:01:51;rest;3.935;0.0;480
2025-09-23;15:54:25;1:01:55;rest;3.935;0.0;480
2025-09-23;15:54:29;1:01:59;rest;3.934;0.0;480
2025-09-23;15:54:33;1:02:03;rest;3.934;0.0;480
2025-09-23;15:54:37;1:02:07;rest;3.934;0.0;480
2025-09-23;15:54:44;1:02:14;charging;4.135;0.04;0
2025-09-23;15:54:46;1:02:16;charging;4.197;0.06;0