File: monitor_Icharger/data_original_1_1000_1.csv
date;time;battery_state;voltage[V];current[mA];capacity[mAh]
2025-09-23;08:51:02;charging;4.19;7;6
2025-09-23;08:51:04;rest;4.138;0;6
2025-09-23;08:51:06;rest;3.865;0;6
2025-09-23;08:51:08;rest;3.865;0;6
2025-09-23;08:51:10;rest;3.865;0;6
2025-09-23;08:51:12;rest;3.865;0;6
2025-09-23;08:51:14;rest;3.864;0;6
2025-09-23;08:51:16;rest;3.864;0;6
2025-09-23;08:51:18;rest;3.863;0;6
2025-09-23;08:51:20;rest;3.865;0;6
2025-09-23;08:51:22;rest;3.865;0;6
2025-09-23;08:51:24;rest;3.863;0;6
2025-09-23;08:51:26;rest;3.864;0;6
2025-09-23;08:51:28;rest;3.861;0;6
2025-09-23;08:51:30;rest;3.863;0;6
2025-09-23;08:51:32;rest;3.861;0;6
2025-09-23;08:51:34;rest;3.861;0;6
2025-09-23;08:51:36;rest;3.861;0;6
2025-09-23;08:51:38;rest;3.863;0;6
2025-09-23;08:51:40;rest;3.861;0;6
2025-09-23;08:51:42;rest;3.859;0;6
2025-09-23;08:51:44;rest;3.859;0;6
2025-09-23;08:51:46;rest;3.857;0;6
2025-09-23;08:51:48;rest;3.859;0;6
2025-09-23;08:51:50;rest;3.86;0;6
2025-09-23;08:51:52;rest;3.857;0;6
2025-09-23;08:51:54;rest;3.858;0;6
2025-09-23;08:51:56;rest;3.857;0;6
2025-09-23;08:51:58;rest;3.857;0;6
2025-09-23;08:52:00;rest;3.863;0;6
2025-09-23;08:52:02;rest;3.857;0;6
2025-09-23;08:52:04;rest;3.857;0;6
2025-09-23;08:52:06;rest;3.858;0;6
2025-09-23;08:52:08;rest;3.857;0;6
2025-09-23;08:52:10;rest;3.858;0;6
2025-09-23;08:52:12;rest;3.863;0;6
2025-09-23;08:52:14;rest;3.857;0;6
2025-09-23;08:52:16;rest;3.857;0;6
2025-09-23;08:52:18;rest;3.857;0;6
2025-09-23;08:52:20;rest;3.857;0;6
2025-09-23;08:52:22;rest;3.857;0;6
2025-09-23;08:52:24;rest;3.857;0;6
2025-09-23;08:52:26;rest;3.857;0;6
2025-09-23;08:52:28;rest;3.857;0;6
2025-09-23;08:52:30;rest;3.865;0;6
2025-09-23;08:52:32;rest;3.863;0;6
2025-09-23;08:52:34;rest;3.862;0;6
2025-09-23;08:52:36;rest;3.863;0;6
2025-09-23;08:52:38;rest;3.857;0;6
2025-09-23;08:52:40;rest;3.857;0;6
2025-09-23;08:52:42;rest;3.861;0;6
2025-09-23;08:52:44;rest;3.857;0;6
2025-09-23;08:52:46;rest;3.857;0;6
2025-09-23;08:52:48;rest;3.857;0;6
2025-09-23;08:52:50;rest;3.857;0;6
2025-09-23;08:52:52;rest;3.857;0;6
2025-09-23;08:52:54;rest;3.857;0;6
2025-09-23;08:52:56;rest;3.857;0;6
2025-09-23;08:52:58;rest;3.857;0;6
2025-09-23;08:53:00;rest;3.857;0;6
2025-09-23;08:53:02;rest;3.857;0;6
2025-09-23;08:53:04;rest;3.863;0;6
2025-09-23;08:53:06;rest;3.857;0;6
2025-09-23;08:53:08;rest;3.857;0;6
2025-09-23;08:53:10;rest;3.857;0;6
2025-09-23;08:53:12;rest;3.857;0;6
2025-09-23;08:53:14;rest;3.857;0;6
2025-09-23;08:53:16;rest;3.857;0;6
2025-09-23;08:53:18;rest;3.857;0;6
2025-09-23;08:53:20;rest;3.857;0;6
2025-09-23;08:53:22;rest;3.857;0;6
2025-09-23;08:53:24;rest;3.857;0;6
2025-09-23;08:53:26;rest;3.857;0;6
2025-09-23;08:53:28;rest;3.857;0;6
2025-09-23;08:53:30;rest;3.864;0;6
2025-09-23;08:53:32;rest;3.857;0;6
2025-09-23;08:53:34;rest;3.857;0;6
2025-09-23;08:53:36;rest;3.863;0;6
2025-09-23;08:53:38;rest;3.864;0;6
2025-09-23;08:53:40;rest;3.857;0;6
2025-09-23;08:53:42;rest;3.857;0;6
2025-09-23;08:53:44;rest;3.857;0;6
2025-09-23;08:53:46;rest;3.864;0;6
2025-09-23;08:53:48;rest;3.857;0;6
2025-09-23;08:53:50;rest;3.857;0;6
2025-09-23;08:53:52;rest;3.857;0;6
2025-09-23;08:53:54;rest;3.857;0;6
2025-09-23;08:53:56;rest;3.863;0;6
2025-09-23;08:53:58;rest;3.857;0;6
2025-09-23;08:54:00;rest;3.863;0;6
2025-09-23;08:54:02;rest;3.857;0;6
2025-09-23;08:54:04;rest;3.857;0;6
2025-09-23;08:54:06;rest;3.857;0;6
2025-09-23;08:54:08;rest;3.857;0;6
2025-09-23;08:54:10;rest;3.857;0;6
2025-09-23;08:54:12;rest;3.857;0;6
2025-09-23;08:54:14;rest;3.857;0;6
2025-09-23;08:54:16;rest;3.857;0;6
2025-09-23;08:54:18;rest;3.857;0;6
2025-09-23;08:54:20;rest;3.857;0;6
2025-09-23;08:54:22;rest;3.857;0;6
2025-09-23;08:54:24;rest;3.857;0;6
2025-09-23;08:54:26;rest;3.857;0;6
2025-09-23;08:54:28;rest;3.857;0;6
2025-09-23;08:54:30;rest;3.857;0;6
2025-09-23;08:54:32;rest;3.857;0;6
2025-09-23;08:54:34;rest;3.857;0;6
2025-09-23;08:54:36;rest;3.857;0;6
2025-09-23;08:54:38;rest;3.857;0;6
2025-09-23;08:54:40;rest;3.857;0;6
2025-09-23;08:54:42;rest;3.857;0;6
2025-09-23;08:54:44;rest;3.857;0;6
2025-09-23;08:54:46;rest;3.857;0;6
2025-09-23;08:54:48;rest;3.857;0;6
2025-09-23;08:54:50;rest;3.857;0;6
2025-09-23;08:54:52;rest;3.857;0;6
2025-09-23;08:54:54;rest;3.857;0;6
2025-09-23;08:54:56;rest;3.857;0;6
2025-09-23;08:54:58;rest;3.863;0;6
2025-09-23;08:55:00;rest;3.857;0;6
2025-09-23;08:55:02;rest;3.857;0;6
2025-09-23;08:55:04;rest;3.857;0;6
2025-09-23;08:55:06;rest;3.857;0;6
2025-09-23;08:55:08;rest;3.857;0;6
2025-09-23;08:55:10;rest;3.857;0;6
2025-09-23;08:55:12;rest;3.857;0;6
2025-09-23;08:55:14;rest;3.857;0;6
2025-09-23;08:55:16;rest;3.857;0;6
2025-09-23;08:55:18;rest;3.857;0;6
2025-09-23;08:55:20;rest;3.857;0;6
2025-09-23;08:55:22;rest;3.857;0;6
2025-09-23;08:55:24;rest;3.857;0;6
2025-09-23;08:55:26;rest;3.857;0;6
2025-09-23;08:55:28;rest;3.865;0;6
2025-09-23;08:55:30;rest;3.857;0;6
2025-09-23;08:55:32;rest;3.857;0;6
2025-09-23;08:55:34;rest;3.857;0;6
2025-09-23;08:55:36;rest;3.857;0;6
2025-09-23;08:55:38;rest;3.857;0;6
2025-09-23;08:55:40;rest;3.857;0;6
2025-09-23;08:55:42;rest;3.865;0;6
2025-09-23;08:55:44;rest;3.857;0;6
2025-09-23;08:55:46;rest;3.857;0;6
2025-09-23;08:55:48;rest;3.857;0;6
2025-09-23;08:55:50;rest;3.857;0;6
2025-09-23;08:55:52;rest;3.857;0;6
2025-09-23;08:55:54;rest;3.857;0;6
2025-09-23;08:55:56;rest;3.857;0;6
2025-09-23;08:55:58;rest;3.857;0;6
2025-09-23;08:56:00;rest;3.857;0;6
2025-09-23;08:56:02;rest;3.857;0;6
2025-09-23;08:56:04;rest;3.857;4;0
2025-09-23;08:56:06;discharging;3.533;15;0
2025-09-23;08:56:08;discharging;3.308;35;0
2025-09-23;08:56:10;rest;3.003;0;0
2025-09-23;08:57:40;rest;3.857;0;0
2025-09-23;08:59:10;rest;3.857;0;0
2025-09-23;09:00:40;rest;3.857;0;0
2025-09-23;09:02:12;charging;4.197;23;3
2025-09-23;09:03:42;charging;4.197;23;9
2025-09-23;09:05:12;charging;4.197;23;15
2025-09-23;09:06:42;charging;4.197;23;21
2025-09-23;09:08:12;charging;4.197;23;27
2025-09-23;09:09:42;charging;4.197;23;33
2025-09-23;09:11:12;charging;4.197;22;39
2025-09-23;09:12:42;charging;4.197;22;44
2025-09-23;09:14:12;charging;4.197;22;50
2025-09-23;09:15:42;charging;4.197;22;56
2025-09-23;09:17:12;charging;4.197;22;61
2025-09-23;09:18:42;charging;4.197;22;67
2025-09-23;09:20:12;charging;4.197;22;72
2025-09-23;09:21:41;charging;4.197;22;78
2025-09-23;09:23:11;charging;4.197;22;84
2025-09-23;09:24:42;charging;4.197;21;89
2025-09-23;09:26:11;charging;4.197;21;95
2025-09-23;09:27:41;charging;4.202;21;100
2025-09-23;09:29:12;charging;4.197;21;105
2025-09-23;09:30:42;charging;4.196;21;111
2025-09-23;09:32:11;charging;4.197;21;116
2025-09-23;09:33:41;charging;4.196;20;121
2025-09-23;09:35:11;charging;4.196;20;127
2025-09-23;09:36:41;charging;4.2;20;132
2025-09-23;09:38:11;charging;4.197;20;137
2025-09-23;09:39:41;charging;4.197;20;142
2025-09-23;09:41:11;charging;4.197;20;147
2025-09-23;09:42:41;charging;4.197;20;153
2025-09-23;09:44:11;charging;4.197;19;158
2025-09-23;09:45:41;charging;4.197;20;163
2025-09-23;09:47:11;charging;4.205;19;168
2025-09-23;09:48:41;charging;4.197;20;173
2025-09-23;09:50:11;charging;4.196;19;178
2025-09-23;09:51:41;charging;4.196;19;183
2025-09-23;09:53:11;charging;4.202;19;188
2025-09-23;09:54:41;charging;4.201;19;193
2025-09-23;09:56:11;charging;4.2;19;198
2025-09-23;09:57:41;charging;4.196;18;202
2025-09-23;09:59:11;charging;4.196;18;207
2025-09-23;10:00:41;charging;4.197;19;212
2025-09-23;10:02:11;charging;4.203;19;217
2025-09-23;10:03:41;charging;4.196;18;222
2025-09-23;10:05:11;charging;4.196;18;226
2025-09-23;10:06:41;charging;4.197;18;231
2025-09-23;10:08:11;charging;4.197;18;236
2025-09-23;10:09:41;charging;4.197;18;241
2025-09-23;10:11:11;charging;4.196;18;245
2025-09-23;10:12:41;charging;4.197;18;250
2025-09-23;10:14:11;charging;4.196;18;254
2025-09-23;10:15:41;charging;4.197;17;259
2025-09-23;10:17:11;charging;4.196;18;263
2025-09-23;10:18:41;charging;4.197;17;268
2025-09-23;10:20:11;charging;4.197;17;272
2025-09-23;10:21:41;charging;4.197;17;277
2025-09-23;10:23:11;charging;4.196;17;281
2025-09-23;10:24:41;charging;4.196;17;286
2025-09-23;10:26:11;charging;4.196;17;290
2025-09-23;10:27:41;charging;4.197;16;294
2025-09-23;10:29:11;charging;4.197;17;299
2025-09-23;10:30:41;charging;4.197;16;303
2025-09-23;10:32:11;charging;4.197;17;307
2025-09-23;10:33:41;charging;4.196;16;311
2025-09-23;10:35:11;charging;4.197;16;316
2025-09-23;10:36:41;charging;4.197;16;320
2025-09-23;10:38:11;charging;4.197;16;324
2025-09-23;10:39:41;charging;4.197;16;328
2025-09-23;10:41:11;charging;4.197;16;332
2025-09-23;10:42:41;charging;4.197;15;336
2025-09-23;10:44:11;charging;4.197;15;340
2025-09-23;10:45:41;charging;4.197;15;344
2025-09-23;10:47:11;charging;4.197;15;348
2025-09-23;10:48:41;charging;4.197;15;352
2025-09-23;10:50:11;charging;4.197;15;356
2025-09-23;10:51:41;charging;4.197;15;360
2025-09-23;10:53:11;charging;4.197;15;364
2025-09-23;10:54:41;charging;4.197;15;368
2025-09-23;10:56:11;charging;4.197;15;371
2025-09-23;10:57:41;charging;4.197;15;375
2025-09-23;10:59:11;charging;4.197;14;379
2025-09-23;11:00:41;charging;4.197;14;383
2025-09-23;11:02:11;charging;4.197;14;386
2025-09-23;11:03:41;charging;4.197;14;390
2025-09-23;11:05:11;charging;4.197;14;394
2025-09-23;11:06:41;charging;4.197;14;398
2025-09-23;11:08:11;charging;4.197;14;401
2025-09-23;11:09:41;charging;4.197;14;405
2025-09-23;11:11:11;charging;4.197;14;408
2025-09-23;11:12:41;charging;4.197;14;412
2025-09-23;11:14:11;charging;4.197;14;416
2025-09-23;11:15:41;charging;4.197;13;419
2025-09-23;11:17:11;charging;4.197;13;423
2025-09-23;11:18:41;charging;4.197;13;426
2025-09-23;11:20:11;charging;4.197;13;430
2025-09-23;11:21:41;charging;4.197;13;433
2025-09-23;11:23:11;charging;4.204;13;436
2025-09-23;11:24:41;charging;4.201;13;440
2025-09-23;11:26:11;charging;4.196;13;443
2025-09-23;11:27:41;charging;4.201;13;446
2025-09-23;11:29:11;charging;4.201;13;450
2025-09-23;11:30:41;charging;4.202;13;453
2025-09-23;11:32:11;charging;4.199;12;456
2025-09-23;11:33:41;charging;4.196;12;460
2025-09-23;11:35:11;charging;4.197;12;463
2025-09-23;11:36:41;charging;4.197;12;466
2025-09-23;11:38:11;charging;4.197;12;469
2025-09-23;11:39:41;charging;4.195;12;472
2025-09-23;11:41:11;charging;4.196;11;475
2025-09-23;11:42:41;charging;4.196;11;478
2025-09-23;11:44:11;charging;4.196;11;481
2025-09-23;11:45:41;charging;4.197;12;484
2025-09-23;11:47:11;charging;4.197;11;487
2025-09-23;11:48:41;charging;4.197;11;490
2025-09-23;11:50:11;charging;4.197;11;493
2025-09-23;11:51:41;charging;4.197;11;496
2025-09-23;11:53:11;charging;4.197;11;499
2025-09-23;11:54:41;charging;4.197;11;502
2025-09-23;11:56:11;charging;4.197;11;505
2025-09-23;11:57:41;charging;4.197;11;508
2025-09-23;11:59:11;charging;4.197;11;511
2025-09-23;12:00:41;charging;4.197;11;513
2025-09-23;12:02:11;charging;4.197;11;516
2025-09-23;12:03:41;charging;4.197;11;519
2025-09-23;12:05:11;charging;4.197;10;522
2025-09-23;12:06:41;charging;4.197;10;525
2025-09-23;12:08:11;charging;4.197;10;527
2025-09-23;12:09:41;charging;4.197;10;530
2025-09-23;12:11:11;charging;4.197;10;533
2025-09-23;12:12:41;charging;4.197;10;535
2025-09-23;12:14:11;charging;4.197;10;538
2025-09-23;12:15:41;charging;4.197;10;541
2025-09-23;12:17:11;charging;4.197;10;543
2025-09-23;12:18:41;charging;4.197;10;546
2025-09-23;12:20:11;charging;4.197;10;549
2025-09-23;12:21:41;charging;4.197;10;551
2025-09-23;12:23:11;charging;4.197;10;554
2025-09-23;12:24:41;charging;4.197;10;556
2025-09-23;12:26:11;charging;4.197;10;559
2025-09-23;12:27:41;charging;4.197;10;562
2025-09-23;12:29:11;charging;4.197;10;564
2025-09-23;12:30:41;charging;4.197;10;567
2025-09-23;12:32:11;charging;4.197;10;569
2025-09-23;12:33:40;charging;4.197;10;572
2025-09-23;12:35:10;charging;4.197;10;575
2025-09-23;12:36:40;charging;4.197;10;577
2025-09-23;12:38:11;charging;4.197;10;580
2025-09-23;12:39:41;charging;4.197;10;582
2025-09-23;12:41:10;charging;4.197;9;585
2025-09-23;12:42:40;charging;4.197;9;587
2025-09-23;12:44:10;charging;4.197;9;590
2025-09-23;12:45:40;charging;4.197;9;592
2025-09-23;12:47:10;charging;4.196;9;595
2025-09-23;12:48:40;charging;4.197;9;597
2025-09-23;12:50:10;charging;4.196;9;600
2025-09-23;12:51:40;charging;4.197;10;602
2025-09-23;12:53:10;charging;4.197;9;605
2025-09-23;12:54:40;charging;4.197;9;607
2025-09-23;12:56:10;charging;4.197;9;609
2025-09-23;12:57:40;charging;4.197;9;612
2025-09-23;12:59:10;charging;4.197;9;614
2025-09-23;13:00:40;charging;4.197;9;617
2025-09-23;13:02:10;charging;4.197;9;619
2025-09-23;13:03:40;charging;4.197;9;621
2025-09-23;13:05:10;charging;4.196;9;624
2025-09-23;13:06:40;charging;4.197;9;626
2025-09-23;13:08:10;charging;4.197;9;628
2025-09-23;13:09:40;charging;4.197;8;630
2025-09-23;13:11:10;charging;4.197;8;633
2025-09-23;13:12:40;charging;4.197;8;635
2025-09-23;13:14:10;charging;4.197;8;637
2025-09-23;13:15:40;charging;4.197;8;639
2025-09-23;13:17:10;charging;4.197;8;642
2025-09-23;13:18:40;charging;4.197;8;644
2025-09-23;13:20:10;charging;4.197;8;646
2025-09-23;13:21:40;charging;4.197;8;648
2025-09-23;13:23:10;charging;4.197;8;650
2025-09-23;13:24:40;charging;4.197;8;652
2025-09-23;13:26:10;charging;4.197;8;654
2025-09-23;13:27:40;charging;4.197;8;656
2025-09-23;13:29:10;charging;4.197;8;658
2025-09-23;13:30:40;charging;4.197;8;661
2025-09-23;13:32:10;charging;4.197;8;663
2025-09-23;13:33:40;charging;4.197;8;665
2025-09-23;13:35:10;charging;4.197;7;667
2025-09-23;13:36:40;charging;4.197;7;669
2025-09-23;13:38:10;charging;4.197;7;671
2025-09-23;13:39:40;charging;4.197;7;673
2025-09-23;13:41:10;charging;4.197;7;675
2025-09-23;13:42:40;charging;4.197;7;677
2025-09-23;13:44:10;charging;4.197;7;678
2025-09-23;13:45:40;charging;4.197;7;680
2025-09-23;13:47:10;charging;4.197;7;682
2025-09-23;13:48:40;charging;4.197;7;684
2025-09-23;13:50:10;charging;4.197;7;686
2025-09-23;13:51:40;charging;4.197;7;688
2025-09-23;13:53:10;charging;4.197;7;689
2025-09-23;13:54:40;charging;4.197;7;691
2025-09-23;13:56:10;charging;4.197;6;693
2025-09-23;13:57:40;charging;4.197;7;695
2025-09-23;13:59:10;charging;4.197;6;696
2025-09-23;14:00:40;charging;4.197;6;698
2025-09-23;14:02:10;charging;4.197;6;700
2025-09-23;14:03:40;charging;4.197;6;702
2025-09-23;14:05:10;charging;4.197;6;703
2025-09-23;14:06:40;charging;4.197;6;705
2025-09-23;14:08:10;charging;4.197;6;707
2025-09-23;14:09:40;charging;4.197;6;708
2025-09-23;14:11:10;charging;4.197;6;710
2025-09-23;14:12:40;charging;4.197;6;712
2025-09-23;14:14:10;charging;4.197;6;713
2025-09-23;14:15:40;charging;4.197;6;715
2025-09-23;14:17:10;charging;4.197;6;717
2025-09-23;14:18:40;charging;4.197;6;718
2025-09-23;14:20:10;charging;4.197;6;720
2025-09-23;14:21:40;charging;4.197;6;722
2025-09-23;14:23:10;charging;4.197;6;723
2025-09-23;14:24:40;charging;4.197;6;725
2025-09-23;14:26:10;charging;4.197;6;726
2025-09-23;14:27:40;charging;4.197;6;728
2025-09-23;14:29:10;charging;4.197;6;729
2025-09-23;14:30:40;charging;4.197;6;731
2025-09-23;14:32:10;charging;4.197;6;732
2025-09-23;14:33:40;charging;4.197;5;734
2025-09-23;14:35:10;charging;4.197;5;735
2025-09-23;14:36:40;charging;4.197;5;737
2025-09-23;14:38:10;charging;4.205;5;738
2025-09-23;14:39:40;charging;4.197;5;740
2025-09-23;14:41:10;charging;4.203;5;741
2025-09-23;14:42:40;charging;4.201;5;743
2025-09-23;14:44:10;charging;4.197;5;744
2025-09-23;14:45:40;charging;4.196;5;745
2025-09-23;14:47:10;charging;4.197;5;747
2025-09-23;14:48:40;rest;4.12;0;747
2025-09-23;14:50:10;rest;4.12;0;747
2025-09-23;14:51:40;rest;4.12;0;747
2025-09-23;14:52:24;rest;4.12;4;0
2025-09-23;14:52:26;discharging;3.896;16;0
2025-09-23;14:52:28;discharging;3.456;37;0
2025-09-23;14:52:30;discharging;3.339;50;0
2025-09-23;14:52:32;discharging;3.345;50;0
2025-09-23;14:52:34;discharging;3.35;50;1
2025-09-23;14:52:36;discharging;3.462;50;1
2025-09-23;14:52:38;discharging;3.425;50;1
2025-09-23;14:52:40;discharging;3.408;49;1
2025-09-23;14:52:42;discharging;3.376;49;2
2025-09-23;14:52:44;discharging;3.488;49;2
2025-09-23;14:52:46;discharging;3.405;49;2
2025-09-23;14:52:48;discharging;3.441;50;3
2025-09-23;14:52:50;discharging;3.426;50;3
2025-09-23;14:52:52;discharging;3.42;49;3
2025-09-23;14:52:54;discharging;3.379;50;3
2025-09-23;14:52:56;discharging;3.365;49;4
2025-09-23;14:52:58;discharging;3.382;49;4
2025-09-23;14:53:00;discharging;3.338;50;4
2025-09-23;14:53:02;discharging;3.336;49;4
2025-09-23;14:53:04;discharging;3.332;49;5
2025-09-23;14:53:06;discharging;3.383;50;5
2025-09-23;14:53:08;discharging;3.339;49;5
2025-09-23;14:53:10;discharging;3.31;49;6
2025-09-23;14:53:12;discharging;3.324;49;6
2025-09-23;14:53:14;discharging;3.312;50;6
2025-09-23;14:53:16;discharging;3.304;49;6
2025-09-23;14:53:18;discharging;3.28;49;7
2025-09-23;14:53:20;discharging;3.331;50;7
2025-09-23;14:53:22;discharging;3.307;50;7
2025-09-23;14:53:24;discharging;3.285;49;8
2025-09-23;14:53:26;discharging;3.306;50;8
2025-09-23;14:53:28;discharging;3.315;49;8
2025-09-23;14:53:30;discharging;3.314;50;8
2025-09-23;14:53:32;discharging;3.325;50;9
2025-09-23;14:53:34;discharging;3.333;50;9
2025-09-23;14:53:36;discharging;3.354;50;9
2025-09-23;14:53:38;discharging;3.328;50;10
2025-09-23;14:53:40;discharging;3.31;49;10
2025-09-23;14:53:42;discharging;3.313;50;10
2025-09-23;14:53:44;discharging;3.336;49;10
2025-09-23;14:53:46;discharging;3.324;49;11
2025-09-23;14:53:48;discharging;3.302;49;11
2025-09-23;14:53:50;discharging;3.322;49;11
2025-09-23;14:53:52;discharging;3.309;49;11
2025-09-23;14:53:54;discharging;3.307;49;12
2025-09-23;14:53:56;discharging;3.317;50;12
[...]
2025-09-23;17:47:08;charging;4.197;6;37
2025-09-23;17:47:38;charging;4.197;7;38
2025-09-23;17:48:08;charging;4.197;7;39
2025-09-23;17:48:38;charging;4.196;6;39
2025-09-23;17:49:08;charging;4.196;6;40
2025-09-23;17:49:38;charging;4.196;6;40
2025-09-23;17:50:08;charging;4.196;6;41
2025-09-23;17:50:38;charging;4.197;6;41
2025-09-23;17:51:08;charging;4.197;6;42
2025-09-23;17:51:38;charging;4.196;6;43
2025-09-23;17:52:08;charging;4.197;6;43
2025-09-23;17:52:38;charging;4.197;6;44
2025-09-23;17:53:08;charging;4.197;6;44
2025-09-23;17:53:38;charging;4.197;6;45
2025-09-23;17:54:08;charging;4.197;6;45
2025-09-23;17:54:38;charging;4.196;6;46
2025-09-23;17:55:08;charging;4.197;6;47
2025-09-23;17:55:38;charging;4.197;6;47
2025-09-23;17:56:08;charging;4.197;6;48
2025-09-23;17:56:38;charging;4.197;6;48
2025-09-23;17:57:08;charging;4.197;7;49
2025-09-23;17:57:38;charging;4.197;6;49
2025-09-23;17:58:08;charging;4.2;6;50
2025-09-23;17:58:38;charging;4.197;6;51
2025-09-23;17:59:08;charging;4.199;6;51
2025-09-23;17:59:38;charging;4.2;6;52
2025-09-23;18:00:08;charging;4.196;6;52
2025-09-23;18:00:38;charging;4.196;6;53
2025-09-23;18:01:08;charging;4.197;6;54
2025-09-23;18:01:38;charging;4.196;6;54
2025-09-23;18:02:08;charging;4.197;6;55
2025-09-23;18:02:38;charging;4.197;6;55
2025-09-23;18:03:08;charging;4.196;6;56
2025-09-23;18:03:38;charging;4.197;6;56
2025-09-23;18:04:08;charging;4.197;6;57
2025-09-23;18:04:38;charging;4.197;6;57
2025-09-23;18:05:08;charging;4.196;6;58
2025-09-23;18:05:38;charging;4.197;6;59
2025-09-23;18:06:08;charging;4.197;6;59
2025-09-23;18:06:38;charging;4.197;6;60
2025-09-23;18:07:08;charging;4.196;6;60
2025-09-23;18:07:38;charging;4.197;6;61
2025-09-23;18:08:08;charging;4.197;6;61
2025-09-23;18:08:38;charging;4.196;6;62
2025-09-23;18:09:08;charging;4.197;6;63
2025-09-23;18:09:38;charging;4.196;6;63
2025-09-23;18:10:08;charging;4.197;6;64
2025-09-23;18:10:38;charging;4.196;6;64
2025-09-23;18:11:08;charging;4.197;6;65
2025-09-23;18:11:38;charging;4.197;6;65
2025-09-23;18:12:08;charging;4.196;6;66
2025-09-23;18:12:38;charging;4.197;6;66
2025-09-23;18:13:08;charging;4.197;6;67
2025-09-23;18:13:38;charging;4.197;6;67
2025-09-23;18:14:08;charging;4.197;6;68
2025-09-23;18:14:38;charging;4.196;6;69
2025-09-23;18:15:08;charging;4.196;6;69
2025-09-23;18:15:38;charging;4.197;6;70
2025-09-23;18:16:08;charging;4.197;7;70
2025-09-23;18:16:38;charging;4.196;6;71
2025-09-23;18:17:08;charging;4.197;6;71
2025-09-23;18:17:38;charging;4.197;6;72
2025-09-23;18:18:08;charging;4.196;6;72
2025-09-23;18:18:38;charging;4.197;6;73
2025-09-23;18:19:08;charging;4.196;6;74
2025-09-23;18:19:38;charging;4.196;6;74
2025-09-23;18:20:08;charging;4.196;6;75
2025-09-23;18:20:38;charging;4.184;5;75
2025-09-23;18:21:08;charging;4.197;6;76
2025-09-23;18:21:38;charging;4.196;6;76
2025-09-23;18:22:08;charging;4.192;6;77
2025-09-23;18:22:38;charging;4.196;6;77
2025-09-23;18:23:08;charging;4.196;6;78
2025-09-23;18:23:38;charging;4.197;6;79
2025-09-23;18:24:08;charging;4.196;6;79
2025-09-23;18:24:38;charging;4.197;6;80
2025-09-23;18:25:08;charging;4.197;6;80
2025-09-23;18:25:38;charging;4.197;6;81
2025-09-23;18:26:08;charging;4.197;6;81
2025-09-23;18:26:38;charging;4.197;6;82
2025-09-23;18:27:08;charging;4.197;6;82
2025-09-23;18:27:38;charging;4.197;6;83
2025-09-23;18:28:08;charging;4.196;6;83
2025-09-23;18:28:38;charging;4.197;5;84
2025-09-23;18:29:08;charging;4.197;6;84
2025-09-23;18:29:38;charging;4.197;6;85
2025-09-23;18:30:08;charging;4.197;6;85
2025-09-23;18:30:38;charging;4.197;5;86
2025-09-23;18:31:08;charging;4.197;5;86
2025-09-23;18:31:38;charging;4.197;5;87
2025-09-23;18:32:08;charging;4.197;5;87
2025-09-23;18:32:38;charging;4.196;6;88
2025-09-23;18:33:08;charging;4.197;6;88
2025-09-23;18:33:38;charging;4.197;6;89
2025-09-23;18:34:08;charging;4.197;6;89
2025-09-23;18:34:38;charging;4.197;6;90
2025-09-23;18:35:08;charging;4.197;6;91
2025-09-23;18:35:38;charging;4.197;6;91
2025-09-23;18:36:08;charging;4.197;6;92
2025-09-23;18:36:38;charging;4.197;6;92
2025-09-23;18:37:08;charging;4.197;6;93
2025-09-23;18:37:38;charging;4.197;6;93
2025-09-23;18:38:08;charging;4.196;6;94
2025-09-23;18:38:38;charging;4.197;6;94
2025-09-23;18:39:08;charging;4.197;6;95
2025-09-23;18:39:38;charging;4.197;6;95
2025-09-23;18:40:08;charging;4.197;6;96
2025-09-23;18:40:38;charging;4.197;6;96
2025-09-23;18:41:08;charging;4.197;6;97
2025-09-23;18:41:38;charging;4.197;6;97
2025-09-23;18:42:08;charging;4.197;6;98
2025-09-23;18:42:38;charging;4.197;6;99
2025-09-23;18:43:08;charging;4.197;6;99
2025-09-23;18:43:38;charging;4.197;6;100
2025-09-23;18:44:08;charging;4.197;6;100
2025-09-23;18:44:38;charging;4.196;6;101
2025-09-23;18:45:08;charging;4.197;6;101
2025-09-23;18:45:38;charging;4.192;5;102
2025-09-23;18:46:08;charging;4.193;5;102
2025-09-23;18:46:38;charging;4.197;6;103
2025-09-23;18:47:08;charging;4.197;6;103
2025-09-23;18:47:38;charging;4.197;6;104
2025-09-23;18:48:08;charging;4.197;6;104
2025-09-23;18:48:38;charging;4.197;6;105
2025-09-23;18:49:08;charging;4.197;6;105
2025-09-23;18:49:38;charging;4.197;6;106
2025-09-23;18:50:08;charging;4.197;6;106
2025-09-23;18:50:38;charging;4.197;6;107
2025-09-23;18:51:08;charging;4.197;6;107
2025-09-23;18:51:38;charging;4.197;6;108
2025-09-23;18:52:08;charging;4.197;6;108
2025-09-23;18:52:38;charging;4.197;5;109
2025-09-23;18:53:08;charging;4.197;6;109
2025-09-23;18:53:38;charging;4.197;6;110
2025-09-23;18:54:08;charging;4.197;6;110
2025-09-23;18:54:38;charging;4.197;5;111
2025-09-23;18:55:08;charging;4.197;5;111
2025-09-23;18:55:38;charging;4.197;5;112
2025-09-23;18:56:08;charging;4.197;5;112
2025-09-23;18:56:38;charging;4.197;5;113
2025-09-23;18:57:08;charging;4.197;5;113
2025-09-23;18:57:38;charging;4.197;5;114
2025-09-23;18:58:08;charging;4.197;5;114
2025-09-23;18:58:38;charging;4.197;5;115
2025-09-23;18:59:08;charging;4.197;6;115
2025-09-23;18:59:38;charging;4.197;5;116
2025-09-23;19:00:08;charging;4.197;5;116
2025-09-23;19:00:38;charging;4.197;6;117
2025-09-23;19:01:08;charging;4.197;6;117
2025-09-23;19:01:38;charging;4.197;6;118
2025-09-23;19:02:08;charging;4.197;5;118
2025-09-23;19:02:38;charging;4.197;5;119
2025-09-23;19:03:08;charging;4.197;5;119
2025-09-23;19:03:38;charging;4.197;5;120
2025-09-23;19:04:08;charging;4.197;5;120
2025-09-23;19:04:38;charging;4.197;6;121
2025-09-23;19:05:08;charging;4.197;5;121
2025-09-23;19:05:38;charging;4.197;5;122
2025-09-23;19:06:08;charging;4.197;5;122
2025-09-23;19:06:38;charging;4.197;5;123
2025-09-23;19:07:08;charging;4.197;5;123
2025-09-23;19:07:38;charging;4.197;6;124
2025-09-23;19:08:08;charging;4.197;5;124
2025-09-23;19:08:38;charging;4.197;5;125
2025-09-23;19:09:08;charging;4.197;5;125
2025-09-23;19:09:38;charging;4.197;5;125
2025-09-23;19:10:08;charging;4.197;5;126
2025-09-23;19:10:38;charging;4.197;5;126
2025-09-23;19:11:08;charging;4.197;4;127
2025-09-23;19:11:38;charging;4.197;4;127
2025-09-23;19:12:08;rest;3.85;0;127
2025-09-23;19:12:38;rest;3.85;0;127
2025-09-23;19:13:08;rest;3.85;0;127
2025-09-23;19:13:38;rest;3.85;0;127
2025-09-23;19:14:08;rest;3.85;0;127
2025-09-23;19:14:38;rest;3.85;0;127
2025-09-23;19:15:08;rest;3.85;0;127
2025-09-23;19:15:38;rest;3.85;0;127
2025-09-23;19:16:08;rest;3.85;0;127
2025-09-23;19:16:38;rest;3.85;0;127
2025-09-23;19:17:02;rest;3.85;0;127
2025-09-23;19:17:04;discharging;3.534;4;0
2025-09-23;19:17:06;discharging;3.361;24;0
2025-09-23;19:17:08;discharging;3.094;47;0
2025-09-23;19:17:10;discharging;3.042;50;0
2025-09-23;19:17:12;discharging;3.077;50;0
2025-09-23;19:17:14;discharging;3.073;50;1
2025-09-23;19:17:16;discharging;3.063;50;1
2025-09-23;19:17:18;discharging;3.06;50;1
2025-09-23;19:17:20;discharging;3.091;50;2
2025-09-23;19:17:22;discharging;3.07;49;2
2025-09-23;19:17:24;discharging;3.04;49;2
2025-09-23;19:17:26;discharging;3.048;49;2
2025-09-23;19:17:28;discharging;3.045;49;3
2025-09-23;19:17:30;discharging;3.053;49;3
2025-09-23;19:17:32;discharging;3.04;50;3
2025-09-23;19:17:34;discharging;3.062;49;3
2025-09-23;19:17:36;discharging;3.04;50;4
2025-09-23;19:17:38;discharging;3.044;50;4
2025-09-23;19:17:40;discharging;3.04;49;4
2025-09-23;19:17:42;discharging;3.055;49;5
2025-09-23;19:17:44;discharging;3.061;49;5
2025-09-23;19:17:46;discharging;3.056;49;5
2025-09-23;19:17:48;discharging;3.053;50;5
2025-09-23;19:17:50;discharging;3.016;49;6
2025-09-23;19:17:52;discharging;3.07;49;6
2025-09-23;19:17:54;discharging;3.04;49;6
2025-09-23;19:17:56;discharging;3.015;49;7
2025-09-23;19:17:58;discharging;3.01;50;7
2025-09-23;19:18:00;discharging;2.997;50;7
2025-09-23;19:18:02;finished;3.834;0;7
2025-09-23;19:18:04;finished;3.839;0;7
2025-09-23;19:18:06;finished;3.841;0;7
2025-09-23;19:18:08;finished;3.84;0;7